 Time (ps)Ekin (1e12erg)Epot (1e12erg)E (1e12erg)T (K)
   0.00000000       16.8911819      -69.0183182      -52.1271362       94.3999405    
  0.100000001       19.8772507      -72.0378876      -52.1606369       111.088219    
  0.200000003       19.6801090      -71.8401871      -52.1600800       109.986450    
  0.300000012       19.9725418      -72.1272202      -52.1546745       111.620781    
  0.400000006       19.3124866      -71.4677124      -52.1552238       107.931923    
  0.499999970       19.8894577      -72.0538559      -52.1643982       111.156448    
  0.600000024       20.0655060      -72.2297440      -52.1642380       112.140327    
  0.699999988       20.1916046      -72.3575897      -52.1659851       112.845055    
  0.800000012       19.6557598      -71.8233109      -52.1675529       109.850372    
  0.899999976       20.4554672      -72.6413956      -52.1859245       114.319702    
  0.999999940       20.2183208      -72.3690872      -52.1507683       112.994362    
   1.10000002       19.7321072      -71.8929825      -52.1608810       110.277054    
   1.20000005       20.4310074      -72.6000137      -52.1690102       114.183006    
   1.29999995       20.1549034      -72.3258820      -52.1709747       112.639946    
   1.39999998       20.1574497      -72.3019485      -52.1444969       112.654175    
   1.49999988       19.6365356      -71.7620163      -52.1254845       109.742935    
   1.60000002       20.2004833      -72.3431702      -52.1426888       112.894676    
   1.69999993       19.4075661      -71.5511703      -52.1436005       108.463287    
   1.79999995       19.6839142      -71.8501740      -52.1662560       110.007721    
   1.89999998       19.9481716      -72.1142654      -52.1660957       111.484573    
   1.99999988       19.7890434      -71.9775543      -52.1885109       110.595261    
   2.09999990       20.5379372      -72.7236710      -52.1857338       114.780609    
   2.20000005       20.2213364      -72.4192200      -52.1978760       113.011215    
   2.29999995       20.3369408      -72.5194168      -52.1824722       113.657295    
   2.40000010       20.0819664      -72.2639160      -52.1819534       112.232315    
   2.50000000       19.4194775      -71.6022644      -52.1827850       108.529861    
   2.59999990       20.1996517      -72.3646927      -52.1650352       112.890030    
   2.69999981       20.0401249      -72.1982422      -52.1581192       111.998474    
   2.79999995       19.7832088      -71.9548645      -52.1716576       110.562645    
   2.90000010       20.2775459      -72.4491959      -52.1716576       113.325348    
   2.99999976       20.4174290      -72.5918350      -52.1744080       114.107117    
   3.09999990       20.1607475      -72.3314896      -52.1707382       112.672607    
   3.20000005       20.9862995      -73.1620407      -52.1757393       117.286377    
   3.29999995       20.4286442      -72.5918121      -52.1631699       114.169807    
   3.39999986       20.2197762      -72.3912354      -52.1714554       113.002495    
   3.50000000       20.3242130      -72.4928970      -52.1686859       113.586166    
   3.59999990       19.4889603      -71.6471405      -52.1581802       108.918182    
   3.70000005       19.9324226      -72.1095963      -52.1771736       111.396561    
   3.79999995       20.1004086      -72.2692490      -52.1688385       112.335388    
   3.89999986       20.0000000      -72.1714172      -52.1714134       111.774231    
   3.99999976       20.7374687      -72.9274673      -52.1900024       115.895737    
   4.09999990       21.1030540      -73.2945633      -52.1915092       117.938889    
   4.19999981       20.2723160      -72.4597092      -52.1873932       113.296135    
   4.29999971       19.7980537      -71.9687347      -52.1706848       110.645615    
   4.40000010       20.4757366      -72.6674118      -52.1916733       114.432991    
   4.50000000       20.6250496      -72.8343277      -52.2092781       115.267456    
   4.59999990       20.4796848      -72.6526718      -52.1729889       114.455055    
   4.69999981       20.4132805      -72.5876617      -52.1743813       114.083939    
   4.80000019       20.4554539      -72.6512604      -52.1958046       114.319626    
   4.90000010       21.0454712      -73.2416916      -52.1962204       117.617065    
   5.00000000       20.3531456      -72.5537796      -52.2006378       113.747864    
   5.10000038       20.2296295      -72.4105072      -52.1808777       113.057556    
   5.19999981       20.0784779      -72.2345352      -52.1560593       112.212814    
   5.29999971       20.0847015      -72.2530212      -52.1683197       112.247604    
   5.39999962       19.6998062      -71.8431549      -52.1433525       110.096535    
   5.50000000       19.5993671      -71.7617798      -52.1624107       109.535210    
   5.59999990       19.9764709      -72.1607437      -52.1842690       111.642738    
   5.69999981       20.2171841      -72.4060593      -52.1888771       112.988007    
   5.80000019       19.8640747      -72.0469131      -52.1828346       111.014587    
   5.90000010       20.0655708      -72.2069321      -52.1413651       112.140686    
   5.99999952       19.8382130      -72.0013809      -52.1631699       110.870049    
   6.10000038       20.0119953      -72.1775742      -52.1655807       111.841270    
   6.19999981       20.3231983      -72.4869156      -52.1637192       113.580490    
   6.30000019       19.8566189      -72.0106125      -52.1539955       110.972908    
   6.40000010       20.3652992      -72.5425415      -52.1772423       113.815788    
   6.49999952       19.7623329      -71.9318924      -52.1695595       110.445976    
   6.59999990       19.9433079      -72.1015854      -52.1582794       111.457390    
   6.70000029       20.1348610      -72.3052673      -52.1704063       112.527931    
   6.79999971       20.1086292      -72.2867889      -52.1781578       112.381332    
   6.90000010       20.0972366      -72.2668762      -52.1696358       112.317657    
   7.00000000       20.2121048      -72.3501740      -52.1380730       112.959625    
   7.09999990       19.8439808      -71.9720383      -52.1280594       110.902283    
   7.19999981       20.0631809      -72.2249374      -52.1617622       112.127327    
   7.29999971       19.5442638      -71.6858673      -52.1416016       109.227249    
   7.40000010       20.4133606      -72.5758591      -52.1625023       114.084381    
   7.50000000       19.9249973      -72.0773087      -52.1523094       111.355064    
   7.59999990       20.2997837      -72.4984283      -52.1986465       113.449638    
   7.69999981       20.0029850      -72.1662903      -52.1632996       111.790916    
   7.79999971       20.5835228      -72.7549667      -52.1714478       115.035370    
   7.90000010       20.3157482      -72.4834595      -52.1677055       113.538864    
   7.99999952       19.9716606      -72.1381760      -52.1665154       111.615852    
   8.09999943       20.1086502      -72.2733002      -52.1646461       112.381447    
   8.19999981       19.9603558      -72.1093369      -52.1489830       111.552673    
   8.30000019       19.9922104      -72.1213379      -52.1291275       111.730698    
   8.39999962       19.8554420      -71.9747391      -52.1192932       110.966339    
   8.50000000       19.8850613      -72.0290070      -52.1439476       111.131866    
   8.59999943       20.1880322      -72.3387909      -52.1507645       112.825089    
   8.70000076       19.8912563      -72.0520630      -52.1608086       111.166496    
   8.80000019       19.7819462      -71.9300003      -52.1480560       110.555595    
   8.89999962       20.5602646      -72.7191315      -52.1588631       114.905396    
   9.00000000       20.1540623      -72.3289413      -52.1748772       112.635239    
   9.09999943       20.0726547      -72.2629929      -52.1903381       112.180283    
   9.19999981       20.1117363      -72.2833328      -52.1715927       112.398697    
   9.29999924       20.2075920      -72.3818817      -52.1742859       112.934402    
   9.39999962       20.0398197      -72.2056580      -52.1658363       111.996773    
   9.49999905       20.2923298      -72.4749527      -52.1826248       113.407982    
   9.60000038       20.5041828      -72.6887054      -52.1845207       114.591965    
   9.70000076       20.4529247      -72.6283264      -52.1754036       114.305496    
   9.80000019       20.4260864      -72.5786209      -52.1525383       114.155502    
   9.90000057       19.9463844      -72.0996628      -52.1532745       111.474594    
   10.0000000       20.6966343      -72.8566818      -52.1600456       115.667519    
   10.1000004       20.2946415      -72.4636230      -52.1689835       113.420891    
   10.2000008       20.4062233      -72.5619507      -52.1557236       114.044495    
   10.2999992       19.8881321      -72.0399857      -52.1518517       111.149040    
   10.3999996       19.6921940      -71.8461380      -52.1539459       110.053993    
   10.4999990       20.1523991      -72.3293610      -52.1769638       112.625946    
   10.5999994       20.1110954      -72.2633209      -52.1522255       112.395111    
   10.6999998       20.0659485      -72.2298203      -52.1638718       112.142799    
   10.7999992       20.5119133      -72.6794739      -52.1675606       114.635170    
   10.9000006       19.8761902      -72.0392456      -52.1630592       111.082298    
   11.0000000       20.2365532      -72.3827667      -52.1462097       113.096260    
   11.0999994       19.7619591      -71.9182587      -52.1562958       110.443893    
   11.1999998       19.6982174      -71.8452759      -52.1470566       110.087654    
   11.2999992       19.9466267      -72.0897903      -52.1431656       111.475937    
   11.3999996       19.3984890      -71.5170593      -52.1185646       108.412567    
   11.5000000       19.8625984      -72.0045700      -52.1419716       111.006340    
   11.6000004       20.0814495      -72.2247543      -52.1433029       112.229431    
   11.7000008       19.7727394      -71.9191513      -52.1464119       110.504135    
   11.8000002       20.4765434      -72.6226730      -52.1461258       114.437500    
   11.8999987       19.7145653      -71.8531952      -52.1386337       110.179016    
   11.9999990       19.2641487      -71.3933945      -52.1292496       107.661774    
   12.0999994       20.1540508      -72.3094254      -52.1553764       112.635178    
   12.2000008       19.3442402      -71.4916077      -52.1473618       108.109375    
   12.3000011       20.3858757      -72.5445023      -52.1586304       113.930779    
   12.3999996       19.9770031      -72.1211472      -52.1441460       111.645706    
   12.5000000       19.9049053      -72.0669022      -52.1619949       111.242775    
   12.6000004       20.0701427      -72.2157440      -52.1456032       112.166245    
   12.6999998       20.4332886      -72.6029816      -52.1696930       114.195755    
   12.8000002       20.3188038      -72.4968796      -52.1780739       113.555931    
   12.8999987       20.0752888      -72.2627945      -52.1875038       112.195000    
   12.9999990       19.7334328      -71.9073486      -52.1739159       110.284470    
   13.0999994       20.0781269      -72.2688751      -52.1907501       112.210861    
   13.1999998       20.2611904      -72.4487839      -52.1875954       113.233948    
   13.3000002       20.9115734      -73.0840912      -52.1725235       116.868752    
   13.4000006       20.5010548      -72.6618805      -52.1608315       114.574478    
   13.4999990       20.1072979      -72.2770615      -52.1697617       112.373886    
   13.5999994       19.4838142      -71.6771240      -52.1933098       108.889420    
   13.6999998       19.8427429      -72.0465317      -52.2037811       110.895370    
   13.8000002       20.3413811      -72.5498428      -52.2084579       113.682114    
   13.9000006       19.7346897      -71.9496765      -52.2149849       110.291489    
   14.0000000       20.2965984      -72.5179367      -52.2213364       113.431831    
   14.0999994       20.4013939      -72.6066818      -52.2052879       114.017509    
   14.1999998       19.8372593      -72.0203705      -52.1831093       110.864723    
   14.3000002       20.3574543      -72.5379486      -52.1804924       113.771942    
   14.3999996       20.2944145      -72.4594803      -52.1650658       113.419632    
   14.4999990       20.2490063      -72.4117966      -52.1627960       113.165855    
   14.5999994       19.7844410      -71.9655685      -52.1811256       110.569534    
   14.6999989       20.2470913      -72.4387741      -52.1916885       113.155151    
   14.8000002       20.2692909      -72.4592209      -52.1899261       113.279221    
   14.9000006       19.7818832      -71.9816437      -52.1997566       110.555237    
   15.0000000       19.9418697      -72.1405563      -52.1986885       111.449356    
   15.0999994       20.0845757      -72.2601318      -52.1755600       112.246902    
   15.1999998       19.7218685      -71.9182892      -52.1964188       110.219833    
   15.2999992       20.7669029      -72.9696884      -52.2027817       116.060234    
   15.3999996       19.9859219      -72.2003403      -52.2144203       111.695557    
   15.5000000       20.4059772      -72.6111679      -52.2051926       114.043121    
   15.5999994       20.0141563      -72.2193985      -52.2052383       111.853348    
   15.6999998       20.1962605      -72.4070740      -52.2108116       112.871071    
   15.8000002       20.4565029      -72.6494522      -52.1929512       114.325493    
   15.9000006       19.6264553      -71.8118668      -52.1854172       109.686592    
   15.9999990       20.1954441      -72.3540726      -52.1586304       112.866516    
   16.1000004       19.5027447      -71.6879578      -52.1852150       108.995216    
   16.1999989       20.3117199      -72.5078049      -52.1960869       113.516342    
   16.2999992       20.6509647      -72.8440170      -52.1930466       115.412285    
   16.3999996       19.7223892      -71.8694077      -52.1470146       110.222740    
   16.5000000       20.3629971      -72.4912033      -52.1282043       113.802917    
   16.6000004       20.1555748      -72.2821732      -52.1265984       112.643692    
   16.7000008       19.7977581      -71.9483719      -52.1506119       110.643967    
   16.7999992       20.1336308      -72.2965546      -52.1629257       112.521057    
   16.8999996       19.7538795      -71.8957901      -52.1419067       110.398735    
   17.0000000       19.8969498      -72.0423431      -52.1453934       111.198318    
   17.0999985       19.9467182      -72.1030884      -52.1563683       111.476456    
   17.1999989       19.5074005      -71.6920776      -52.1846733       109.021240    
   17.3000011       19.9764996      -72.1479416      -52.1714401       111.642891    
   17.4000015       20.3528862      -72.5133972      -52.1605110       113.746407    
   17.5000000       20.7262249      -72.8851318      -52.1589012       115.832893    
   17.6000004       20.2082596      -72.3701019      -52.1618423       112.938141    
   17.6999989       20.4688263      -72.6380920      -52.1692619       114.394363    
   17.7999992       20.0649567      -72.2298889      -52.1649323       112.137253    
   17.8999996       19.9855938      -72.1595612      -52.1739693       111.693718    
   18.0000000       20.1368999      -72.3306351      -52.1937370       112.539322    
   18.1000004       20.3190346      -72.5117874      -52.1927528       113.557220    
   18.1999989       19.8823299      -72.0608292      -52.1784973       111.116608    
   18.3000011       20.0330601      -72.2078934      -52.1748352       111.958992    
   18.3999996       20.6584721      -72.8156815      -52.1572113       115.454239    
   18.5000000       20.1962547      -72.3725891      -52.1763344       112.871040    
   18.5999985       20.7050705      -72.8863678      -52.1813011       115.714668    
   18.6999989       19.6676788      -71.8234711      -52.1557922       109.916985    
   18.7999992       20.2371922      -72.4066696      -52.1694756       113.099831    
   18.8999996       19.7063293      -71.8609161      -52.1545830       110.132996    
   18.9999981       20.2802372      -72.4156723      -52.1354332       113.340401    
   19.0999985       20.5120010      -72.6371536      -52.1251526       114.635658    
   19.2000008       19.6884880      -71.8287964      -52.1403046       110.033287    
   19.3000011       20.2811165      -72.4424515      -52.1613388       113.345314    
   19.4000015       20.2099590      -72.3655167      -52.1555557       112.947632    
   19.5000019       19.8206654      -71.9694519      -52.1487846       110.771988    
   19.6000004       20.0565300      -72.2106247      -52.1540985       112.090157    
   19.7000008       20.0751228      -72.2262650      -52.1511459       112.194077    
   19.8000011       20.2450809      -72.3988571      -52.1537743       113.143921    
   19.8999996       20.4166412      -72.5916901      -52.1750488       114.102715    
   20.0000000       19.4622211      -71.6232681      -52.1610451       108.768745    
   20.0999985       19.5644608      -71.7096100      -52.1451492       109.340134    
   20.2000008       19.3271675      -71.4822540      -52.1550903       108.013969    
   20.2999992       19.6984520      -71.8362503      -52.1378021       110.088959    
   20.4000015       20.0189457      -72.1427002      -52.1237564       111.880112    
   20.5000000       20.7968273      -72.9362717      -52.1394463       116.227470    
   20.5999985       19.8731899      -72.0272598      -52.1540680       111.065529    
   20.7000008       19.6928463      -71.8519211      -52.1590767       110.057640    
   20.7999992       19.9385967      -72.0988007      -52.1601982       111.431068    
   20.9000015       20.1044960      -72.2236404      -52.1191483       112.358231    
   20.9999981       19.9923573      -72.1053543      -52.1130028       111.731514    
   21.0999985       20.1793747      -72.3020706      -52.1226921       112.776711    
   21.1999989       20.7560596      -72.8925171      -52.1364594       115.999634    
   21.2999973       19.9875698      -72.1332397      -52.1456642       111.704765    
   21.3999996       19.7582302      -71.8964767      -52.1382446       110.423050    
   21.4999981       20.5254631      -72.6545639      -52.1291008       114.710892    
   21.5999985       19.9573441      -72.0789185      -52.1215744       111.535843    
   21.6999989       19.8699608      -72.0072937      -52.1373367       111.047485    
   21.8000011       20.0569458      -72.2295074      -52.1725616       112.092484    
   21.9000015       20.3501949      -72.5361176      -52.1859207       113.731369    
   22.0000000       20.2408237      -72.4107437      -52.1699219       113.120117    
   22.1000004       19.8723869      -72.0388336      -52.1664429       111.061035    
   22.1999989       20.2292461      -72.3883896      -52.1591415       113.055420    
   22.2999992       19.7761555      -71.9294128      -52.1532555       110.523232    
   22.3999996       20.5753460      -72.7277527      -52.1524086       114.989670    
   22.5000000       19.8408794      -72.0015793      -52.1606979       110.884949    
   22.5999985       19.9939785      -72.1604691      -52.1664925       111.740578    
   22.7000008       19.9352360      -72.0800552      -52.1448212       111.412285    
   22.7999992       19.7460537      -71.8807983      -52.1347466       110.354996    
   22.8999996       20.2192593      -72.3427658      -52.1235046       112.999611    
   23.0000000       20.1254044      -72.2875977      -52.1621933       112.475082    
