 Time (ps)Ekin (1e12erg)Epot (1e12erg)E (1e12erg)T (K)
   0.00000000       16.8912163      -68.2539673      -51.3627472       94.4001312    
  0.100000001       19.9852676      -71.3853455      -51.4000778       111.691902    
  0.200000003       21.4825859      -72.8865051      -51.4039154       120.059982    
  0.300000012       21.2345257      -72.6326828      -51.3981552       118.673645    
  0.400000006       21.0488052      -72.4475555      -51.3987503       117.635696    
  0.499999970       20.6613865      -72.0466995      -51.3853149       115.470528    
  0.600000024       20.8605137      -72.2630920      -51.4025764       116.583397    
  0.699999988       20.4764252      -71.8670578      -51.3906364       114.436829    
  0.800000012       20.6385460      -72.0494919      -51.4109459       115.342880    
  0.899999976       20.3305683      -71.7471008      -51.4165306       113.621681    
  0.999999940       20.1194592      -71.5096436      -51.3901825       112.441856    
   1.10000002       20.4129238      -71.8099289      -51.3970032       114.081940    
   1.20000005       20.6048584      -71.9899826      -51.3851242       115.154610    
   1.29999995       20.2444172      -71.6045151      -51.3600960       113.140205    
   1.39999998       20.0560760      -71.4230652      -51.3669930       112.087624    
   1.49999988       20.7522392      -72.1296082      -51.3773689       115.978287    
   1.60000002       20.6492538      -72.0269852      -51.3777351       115.402733    
   1.69999993       20.6605587      -72.0200043      -51.3594437       115.465904    
   1.79999995       20.5492325      -71.9356461      -51.3864136       114.843735    
   1.89999998       20.2077789      -71.6109772      -51.4031944       112.935455    
   1.99999988       20.6728287      -72.1004333      -51.4276085       115.534470    
   2.09999990       20.2598038      -71.6965103      -51.4367065       113.226204    
   2.20000005       20.4141922      -71.8419800      -51.4277840       114.089035    
   2.29999995       20.8854237      -72.2908173      -51.4053955       116.722610    
   2.40000010       20.6207333      -72.0054550      -51.3847237       115.243324    
   2.50000000       20.9562931      -72.3506393      -51.3943481       117.118683    
   2.59999990       20.9438190      -72.3691559      -51.4253387       117.048965    
   2.69999981       20.7144432      -72.1397781      -51.4253349       115.767052    
   2.79999995       21.0412350      -72.4755936      -51.4343605       117.593391    
   2.90000010       20.6978664      -72.1493301      -51.4514618       115.674408    
   2.99999976       20.9696484      -72.3934174      -51.4237671       117.193314    
   3.09999990       20.4298115      -71.8330078      -51.4032021       114.176315    
   3.20000005       21.0279331      -72.4168472      -51.3889160       117.519051    
   3.29999995       21.0929928      -72.4927750      -51.3997803       117.882660    
   3.39999986       20.4968338      -71.8518753      -51.3550453       114.550888    
   3.50000000       20.4154911      -71.7706146      -51.3551292       114.096291    
   3.59999990       20.9706287      -72.3630524      -51.3924255       117.198799    
   3.70000005       20.9367924      -72.3279800      -51.3911896       117.009689    
   3.79999995       20.4835300      -71.8808975      -51.3973656       114.476540    
   3.89999986       20.2185249      -71.6118240      -51.3932953       112.995506    
   3.99999976       20.1981544      -71.5811386      -51.3829803       112.881653    
   4.09999990       20.6509075      -72.0392456      -51.3883400       115.411972    
   4.19999981       20.7521629      -72.1514740      -51.3993073       115.977859    
   4.29999971       20.5642910      -71.9479599      -51.3836670       114.927895    
   4.40000010       20.0371361      -71.4109650      -51.3738289       111.981781    
   4.50000000       20.6049118      -71.9952927      -51.3903770       115.154907    
   4.59999990       20.8278790      -72.2268600      -51.3989830       116.401009    
   4.69999981       20.5687237      -71.9703979      -51.4016724       114.952667    
   4.80000019       21.1810551      -72.6096878      -51.4286308       118.374809    
   4.90000010       20.7461472      -72.1688919      -51.4227409       115.944237    
   5.00000000       19.7047195      -71.1252899      -51.4205742       110.124001    
   5.10000038       21.2820892      -72.6969757      -51.4148865       118.939453    
   5.19999981       20.6340656      -72.0599365      -51.4258690       115.317841    
   5.29999971       20.7288952      -72.1161270      -51.3872261       115.847824    
   5.39999962       20.1324825      -71.5089645      -51.3764839       112.514641    
   5.50000000       20.8976955      -72.3229218      -51.4252243       116.791191    
   5.59999990       21.0262318      -72.4864197      -51.4601898       117.509544    
   5.69999981       20.2450504      -71.6689301      -51.4238777       113.143745    
   5.80000019       20.7382736      -72.1614380      -51.4231644       115.900230    
   5.90000010       20.8088570      -72.2013779      -51.3925209       116.294693    
   5.99999952       20.8652439      -72.2753372      -51.4100952       116.609825    
   6.10000038       20.2411690      -71.6440887      -51.4029160       113.122047    
   6.19999981       20.9228306      -72.3356705      -51.4128380       116.931671    
   6.30000019       20.8800488      -72.2842865      -51.4042435       116.692574    
   6.40000010       20.2014027      -71.5780334      -51.3766327       112.899818    
   6.49999952       20.2296562      -71.6372375      -51.4075775       113.057716    
   6.59999990       20.9906139      -72.4028397      -51.4122276       117.310486    
   6.70000029       20.6776390      -72.0954514      -51.4178123       115.561356    
   6.79999971       20.9127636      -72.3383942      -51.4256287       116.875397    
   6.90000010       21.2577839      -72.6901474      -51.4323616       118.803619    
   7.00000000       20.1886311      -71.6193771      -51.4307480       112.828430    
   7.09999990       20.2068138      -71.6072693      -51.4004517       112.930054    
   7.19999981       20.4675312      -71.8890381      -51.4215050       114.387123    
   7.29999971       20.6109047      -72.0337982      -51.4228897       115.188408    
   7.40000010       20.6515656      -72.0679703      -51.4164047       115.415642    
   7.50000000       20.7165184      -72.1330643      -51.4165459       115.778648    
   7.59999990       20.2397614      -71.6463470      -51.4065857       113.114189    
   7.69999981       20.6582680      -72.0770035      -51.4187355       115.453102    
   7.79999971       20.4954319      -71.9249115      -51.4294777       114.543053    
   7.90000010       20.7622204      -72.1971970      -51.4349823       116.034058    
   7.99999952       21.0410500      -72.4737473      -51.4326973       117.592354    
   8.09999943       20.6137276      -72.0345383      -51.4208107       115.204178    
   8.19999981       20.9130421      -72.3032455      -51.3902054       116.876961    
   8.30000019       20.8980732      -72.3068237      -51.4087524       116.793304    
   8.39999962       21.1282845      -72.5262451      -51.3979607       118.079887    
   8.50000000       20.7217503      -72.1310272      -51.4092789       115.807884    
   8.59999943       20.5186634      -71.9575729      -51.4389076       114.672890    
   8.70000076       20.5595093      -71.9840698      -51.4245605       114.901169    
   8.80000019       20.2900944      -71.7058868      -51.4157867       113.395485    
   8.89999962       20.2544975      -71.6571350      -51.4026337       113.196548    
   9.00000000       20.6098995      -71.9842758      -51.3743744       115.182785    
   9.09999943       20.9779968      -72.3668289      -51.3888321       117.239975    
   9.19999981       20.9480286      -72.3414154      -51.3933907       117.072487    
   9.29999924       20.1840191      -71.5770264      -51.3930092       112.802666    
   9.39999962       20.6485825      -72.0599289      -51.4113464       115.398972    
   9.49999905       20.6899757      -72.0915222      -51.4015427       115.630310    
   9.60000038       20.3994465      -71.8408813      -51.4414330       114.006622    
   9.70000076       19.8573990      -71.2635193      -51.4061203       110.977272    
   9.80000019       20.2138538      -71.6386566      -51.4248085       112.969398    
   9.90000057       20.7749043      -72.1867523      -51.4118462       116.104950    
   10.0000000       20.9306087      -72.3516083      -51.4209976       116.975143    
   10.1000004       20.8457680      -72.2759628      -51.4301949       116.500984    
   10.2000008       20.5205097      -71.9681091      -51.4476013       114.683212    
   10.2999992       20.4619961      -71.8816681      -51.4196701       114.356201    
   10.3999996       20.4975109      -71.9119034      -51.4143944       114.554680    
   10.4999990       20.7200546      -72.1131058      -51.3930511       115.798409    
   10.5999994       20.2284164      -71.6101456      -51.3817329       113.050781    
   10.6999998       20.3120098      -71.7035980      -51.3915939       113.517967    
   10.7999992       20.7491798      -72.1546249      -51.4054413       115.961182    
   10.9000006       19.8615837      -71.2748642      -51.4132767       111.000656    
   11.0000000       20.2236671      -71.6431580      -51.4194908       113.024239    
   11.0999994       20.5076714      -71.9211044      -51.4134293       114.611465    
   11.1999998       20.0324841      -71.4656906      -51.4332047       111.955780    
   11.2999992       20.6191978      -72.0611877      -51.4419937       115.234749    
   11.3999996       20.8924046      -72.3343735      -51.4419670       116.761620    
   11.5000000       20.2566071      -71.6943130      -51.4377022       113.208336    
   11.6000004       20.5052738      -71.9443893      -51.4391136       114.598068    
   11.7000008       20.4265175      -71.8620453      -51.4355240       114.157921    
   11.8000002       20.7775021      -72.2097015      -51.4321976       116.119469    
   11.8999987       20.7051754      -72.1208267      -51.4156570       115.715256    
   11.9999990       20.5112705      -71.9114914      -51.4002190       114.631577    
   12.0999994       21.2232208      -72.6313248      -51.4081039       118.610458    
   12.2000008       20.7369843      -72.1396713      -51.4026833       115.893028    
   12.3000011       20.1508045      -71.5614853      -51.4106827       112.617035    
   12.3999996       19.7668591      -71.1829834      -51.4161224       110.471275    
   12.5000000       20.5853901      -72.0001831      -51.4147949       115.045807    
   12.6000004       20.6546078      -72.0689087      -51.4142952       115.432648    
   12.6999998       20.1489620      -71.5605850      -51.4116211       112.606735    
   12.8000002       20.9176159      -72.3303452      -51.4127274       116.902527    
   12.8999987       21.0927811      -72.5065460      -51.4137688       117.881462    
   12.9999990       21.0489140      -72.4693298      -51.4204178       117.636314    
   13.0999994       20.0218754      -71.4357529      -51.4138794       111.896484    
   13.1999998       20.2711315      -71.6869583      -51.4158211       113.289513    
   13.3000002       20.9036446      -72.3328323      -51.4291878       116.824440    
   13.4000006       21.0859032      -72.5237808      -51.4378738       117.843033    
   13.4999990       20.7528610      -72.1727905      -51.4199257       115.981758    
   13.5999994       20.8516254      -72.2413712      -51.3897476       116.533722    
   13.6999998       21.1996117      -72.5994644      -51.3998489       118.478516    
   13.8000002       20.2186642      -71.6172028      -51.3985405       112.996277    
   13.9000006       20.3844910      -71.7644043      -51.3799133       113.923042    
   14.0000000       20.5378418      -71.9553528      -51.4175072       114.780075    
   14.0999994       20.5788822      -72.0050201      -51.4261360       115.009438    
   14.1999998       20.7161446      -72.1428146      -51.4266701       115.776550    
   14.3000002       20.7979736      -72.2350616      -51.4370842       116.233879    
   14.3999996       21.5847626      -73.0348282      -51.4500656       120.631004    
   14.4999990       20.9287777      -72.3885117      -51.4597321       116.964905    
   14.5999994       21.1400051      -72.5960922      -51.4560814       118.145386    
   14.6999989       20.8914280      -72.3317337      -51.4403038       116.756165    
   14.8000002       20.0069580      -71.4514542      -51.4444962       111.813118    
   14.9000006       21.1763763      -72.6205673      -51.4441910       118.348663    
   15.0000000       21.0078182      -72.4225998      -51.4147835       117.406639    
   15.0999994       20.1655617      -71.5829926      -51.4174309       112.699509    
   15.1999998       20.5036812      -71.9373322      -51.4336472       114.589157    
   15.2999992       20.0946712      -71.5046616      -51.4099922       112.303322    
   15.3999996       20.3947163      -71.7808762      -51.3861580       113.980179    
   15.5000000       20.3753662      -71.7724991      -51.3971291       113.872047    
   15.5999994       20.6759796      -72.0866165      -51.4106331       115.552086    
   15.6999998       20.8404102      -72.2391815      -51.3987656       116.471046    
   15.8000002       20.1460228      -71.5474167      -51.4013901       112.590309    
   15.9000006       20.6712723      -72.0756683      -51.4043961       115.525780    
   15.9999990       20.6965923      -72.0969315      -51.4003410       115.667282    
   16.1000004       20.7820187      -72.1808624      -51.3988457       116.144707    
   16.1999989       20.4423141      -71.8670197      -51.4247055       114.246201    
   16.2999992       20.7430630      -72.1646652      -51.4216003       115.927002    
   16.3999996       20.2497597      -71.6936035      -51.4438438       113.170067    
   16.5000000       20.9456768      -72.3721390      -51.4264603       117.059349    
   16.6000004       20.6142712      -72.0370255      -51.4227524       115.207214    
   16.7000008       20.3721256      -71.8161240      -51.4439964       113.853935    
   16.7999992       20.3562317      -71.7732468      -51.4170151       113.765114    
   16.8999996       20.8245106      -72.2353287      -51.4108200       116.382179    
   17.0000000       21.0930576      -72.5143585      -51.4213028       117.883018    
   17.0999985       20.9893742      -72.4085007      -51.4191284       117.303551    
   17.1999989       20.3100929      -71.7308197      -51.4207268       113.507248    
   17.3000011       20.4586506      -71.8559494      -51.3973045       114.337494    
   17.4000015       20.8825378      -72.2836075      -51.4010696       116.706474    
   17.5000000       20.8669224      -72.2779236      -51.4110031       116.619209    
   17.6000004       20.5610294      -71.9642944      -51.4032631       114.909668    
   17.6999989       20.8583298      -72.2927246      -51.4343987       116.571182    
   17.7999992       21.2358532      -72.6738892      -51.4380341       118.681061    
   17.8999996       20.7223969      -72.1174698      -51.3950768       115.811501    
   18.0000000       20.6520653      -72.0588837      -51.4068222       115.418434    
   18.1000004       20.9519348      -72.3578415      -51.4059067       117.094322    
   18.1999989       20.8405132      -72.2546692      -51.4141541       116.471619    
   18.3000011       20.1571274      -71.5681229      -51.4109917       112.652374    
   18.3999996       20.8298626      -72.2664948      -51.4366379       116.412094    
   18.5000000       21.3757839      -72.8257904      -51.4500122       119.463089    
   18.5999985       20.6543789      -72.0633698      -51.4089890       115.431366    
   18.6999989       20.2336121      -71.6362991      -51.4026871       113.079819    
   18.7999992       20.4136925      -71.8175659      -51.4038734       114.086243    
   18.8999996       20.2878151      -71.6990204      -51.4112091       113.382744    
   18.9999981       20.2666836      -71.6886826      -51.4219971       113.264648    
   19.0999985       20.5386982      -71.9521484      -51.4134445       114.784866    
   19.2000008       20.6459770      -72.0780563      -51.4320793       115.384415    
   19.3000011       20.6273098      -72.0739746      -51.4466591       115.280090    
   19.4000015       20.0974369      -71.5500946      -51.4526558       112.318779    
   19.5000019       20.1670761      -71.6071930      -51.4401169       112.707970    
   19.6000004       20.0163174      -71.4520798      -51.4357643       111.865417    
   19.7000008       20.4260921      -71.8753738      -51.4492836       114.155533    
   19.8000011       20.8934917      -72.3363876      -51.4428940       116.767700    
   19.8999996       20.9024525      -72.3588791      -51.4564285       116.817772    
   20.0000000       20.5719528      -71.9950180      -51.4230652       114.970703    
   20.0999985       21.3475475      -72.7728882      -51.4253426       119.305283    
   20.2000008       20.6708164      -72.0877380      -51.4169235       115.523224    
   20.2999992       21.0006313      -72.4020767      -51.4014473       117.366470    
   20.4000015       21.0961361      -72.5101776      -51.4140434       117.900215    
   20.5000000       20.8898411      -72.3125229      -51.4226837       116.747299    
   20.5999985       20.8327274      -72.2621384      -51.4294128       116.428108    
   20.7000008       21.0359898      -72.4790192      -51.4430237       117.564087    
   20.7999992       20.4033298      -71.8425217      -51.4391937       114.028328    
   20.9000015       20.7548828      -72.1859894      -51.4311104       115.993050    
   20.9999981       20.1375351      -71.5731583      -51.4356194       112.542877    
   21.0999985       20.6992493      -72.1388321      -51.4395828       115.682137    
   21.1999989       20.6441593      -72.0844650      -51.4403038       115.374252    
   21.2999973       20.8295040      -72.2933960      -51.4638901       116.410095    
   21.3999996       20.8781319      -72.3248520      -51.4467201       116.681862    
   21.4999981       20.4585629      -71.8911209      -51.4325523       114.337013    
   21.5999985       20.6207695      -72.0727692      -51.4520035       115.243530    
   21.6999989       20.0896301      -71.5215607      -51.4319267       112.275146    
   21.8000011       20.2464199      -71.6808090      -51.4343872       113.151398    
   21.9000015       20.7347965      -72.1479111      -51.4131165       115.880791    
   22.0000000       20.2780342      -71.6714935      -51.3934593       113.328087    
   22.1000004       20.6007938      -71.9763489      -51.3755569       115.131897    
   22.1999989       20.2801456      -71.6513062      -51.3711624       113.339882    
   22.2999992       20.9240627      -72.3194733      -51.3954163       116.938553    
   22.3999996       20.5792046      -71.9770126      -51.3978081       115.011238    
   22.5000000       20.2917290      -71.6656189      -51.3738899       113.404617    
   22.5999985       20.8362522      -72.2249222      -51.3886681       116.447807    
   22.7000008       21.0128670      -72.4110870      -51.3982201       117.434853    
   22.7999992       20.3047352      -71.6956482      -51.3909111       113.477310    
   22.8999996       20.8987675      -72.2967911      -51.3980255       116.797180    
   23.0000000       20.0123138      -71.4194870      -51.4071770       111.843048    
