 Time (ps)Ekin (1e12erg)Epot (1e12erg)E (1e12erg)T (K)
   0.00000000       16.8911877      -57.4326630      -40.5414734       9.43999754E+13
   9.99999978E-03   16.6989689      -57.2381706      -40.5391998       9.33257219E+13
   1.99999996E-02   16.1386375      -56.6758308      -40.5371933       9.01941874E+13
   2.99999993E-02   15.2476225      -55.8484039      -40.6007843       8.52145587E+13
   3.99999991E-02   14.0903893      -54.8480263      -40.7576370       7.87471265E+13
   5.00000007E-02   12.7586193      -53.6998215      -40.9412003       7.13042417E+13
   5.99999987E-02   11.3706598      -52.4782867      -41.1076241       6.35473379E+13
   7.00000003E-02   10.0648661      -51.3017769      -41.2369080       5.62496348E+13
   7.99999982E-02   8.98181725      -50.3233795      -41.3415604       5.01967843E+13
   8.99999961E-02   8.23794460      -49.6643333      -41.4263878       4.60394951E+13
  0.100000001       7.89958382      -49.4003029      -41.5007210       4.41484931E+13
  0.109999992       7.96880341      -49.5376778      -41.5688782       4.45353422E+13
  0.119999997       8.38741302      -50.0022888      -41.6148796       4.68748327E+13
  0.129999995       9.05669975      -50.7183228      -41.6616211       5.06152836E+13
  0.140000001       9.86265182      -51.5627937      -41.7001419       5.51195131E+13
  0.150000006       10.6985569      -52.4285851      -41.7300301       5.97911457E+13
  0.159999996       11.4799452      -53.2599373      -41.7799911       6.41581040E+13
  0.169999972       12.1516171      -53.9544144      -41.8027954       6.79118887E+13
  0.179999992       12.6887550      -54.5094185      -41.8206596       7.09137940E+13
  0.189999998       13.0939426      -54.9377594      -41.8438148       7.31782652E+13
  0.200000003       13.3913622      -55.2628479      -41.8714867       7.48404594E+13
  0.209999993       13.6189766      -55.5104485      -41.8914719       7.61125331E+13
  0.219999984       13.8198519      -55.7392197      -41.9193687       7.72351638E+13
  0.230000019       14.0339651      -55.9747543      -41.9407921       7.84317819E+13
  0.239999995       14.2918549      -56.2547073      -41.9628487       7.98730538E+13
  0.249999985       14.6117525      -56.6041908      -41.9924355       8.16608759E+13
  0.259999990       14.9997721      -57.0054588      -42.0056877       8.38293982E+13
  0.269999981       15.4528599      -57.4677658      -42.0149040       8.63615750E+13
  0.280000001       15.9622889      -57.9954643      -42.0331764       8.92086266E+13
  0.289999992       16.5171204      -58.5726891      -42.0555687       9.23094252E+13
  0.300000012       17.1065235      -59.1920547      -42.0855293       9.56034303E+13
  0.310000002       17.7220783      -59.8377037      -42.1156235       9.90435900E+13
  0.319999993       18.3584442      -60.4947891      -42.1363411       1.02600049E+14
  0.329999983       19.0127335      -61.1688614      -42.1561241       1.06256686E+14
  0.339999944       19.6834087      -61.8594398      -42.1760330       1.10004900E+14
  0.349999994       20.3678112      -62.5669785      -42.1991692       1.13829829E+14
  0.359999985       21.0606689      -63.2872086      -42.2265434       1.17702002E+14
  0.370000005       21.7537956      -64.0013580      -42.2475662       1.21575685E+14
  0.379999995       22.4372444      -64.7072754      -42.2700272       1.25395286E+14
  0.389999986       23.1009560      -65.3955994      -42.2946434       1.29104569E+14
  0.400000006       23.7369766      -66.0467682      -42.3097878       1.32659116E+14
  0.409999996       24.3393593      -66.6612091      -42.3218536       1.36025649E+14
  0.419999987       24.9035873      -67.2478104      -42.3442268       1.39178969E+14
  0.430000007       25.4246578      -67.7826691      -42.3580132       1.42091074E+14
  0.439999968       25.8972054      -68.2900848      -42.3928795       1.44732009E+14
  0.449999988       26.3160324      -68.7236938      -42.4076614       1.47072716E+14
  0.460000038       26.6768036      -69.1046448      -42.4278412       1.49088952E+14
  0.469999999       26.9763298      -69.4119797      -42.4356537       1.50762932E+14
  0.479999989       27.2117615      -69.6716537      -42.4598961       1.52078685E+14
  0.489999980       27.3809013      -69.8571091      -42.4762115       1.53023964E+14
  0.499999970       27.4835110      -69.9749908      -42.4914780       1.53597426E+14
  0.510000050       27.5241966      -70.0353699      -42.5111694       1.53824791E+14
  0.519999981       27.5139046      -70.0322342      -42.5183334       1.53767278E+14
  0.529999971       27.4720440      -69.9962921      -42.5242462       1.53533320E+14
  0.539999962       27.4251518      -69.9596176      -42.5344696       1.53271277E+14
  0.550000012       27.4023170      -69.9428711      -42.5405540       1.53143652E+14
  0.560000002       27.4264069      -69.9799728      -42.5535660       1.53278273E+14
  0.569999993       27.5045185      -70.0759735      -42.5714531       1.53714816E+14
  0.579999983       27.6232395      -70.2026749      -42.5794411       1.54378304E+14
  0.589999974       27.7548523      -70.3471680      -42.5923119       1.55113868E+14
  0.600000024       27.8699665      -70.4640884      -42.5941200       1.55757207E+14
  0.610000014       27.9502144      -70.5472488      -42.5970345       1.56205696E+14
  0.620000005       27.9914398      -70.6035767      -42.6121368       1.56436080E+14
  0.629999995       28.0009651      -70.6068268      -42.6058617       1.56489314E+14
  0.639999986       27.9922390      -70.6080246      -42.6157875       1.56440543E+14
  0.649999976       27.9799728      -70.6030731      -42.6231003       1.56371991E+14
  0.659999967       27.9760456      -70.6061096      -42.6300659       1.56350047E+14
  0.669999957       27.9864082      -70.6208649      -42.6344566       1.56407962E+14
  0.679999888       28.0101376      -70.6537933      -42.6436577       1.56540569E+14
  0.690000057       28.0398560      -70.6827469      -42.6428909       1.56706663E+14
  0.699999988       28.0657291      -70.7140732      -42.6483421       1.56851249E+14
  0.710000038       28.0810261      -70.7257690      -42.6447372       1.56936763E+14
  0.719999969       28.0855694      -70.7293930      -42.6438255       1.56962147E+14
  0.729999959       28.0829239      -70.7292480      -42.6463242       1.56947349E+14
  0.740000010       28.0748196      -70.7215424      -42.6467209       1.56902068E+14
  0.749999940       28.0602894      -70.7020950      -42.6418076       1.56820866E+14
  0.759999990       28.0409679      -70.6786880      -42.6377144       1.56712888E+14
  0.769999981       28.0263481      -70.6647110      -42.6383629       1.56631183E+14
  0.779999971       28.0302696      -70.6734314      -42.6431618       1.56653094E+14
  0.790000021       28.0580692      -70.6952820      -42.6372147       1.56808451E+14
  0.800000012       28.1004391      -70.7381439      -42.6377068       1.57045244E+14
  0.810000002       28.1415329      -70.7802048      -42.6386757       1.57274908E+14
  0.819999993       28.1699753      -70.7991333      -42.6291656       1.57433872E+14
  0.829999983       28.1794567      -70.8074188      -42.6279640       1.57486854E+14
  0.839999974       28.1649017      -70.7948303      -42.6299286       1.57405501E+14
  0.849999964       28.1239815      -70.7601776      -42.6361923       1.57176811E+14
  0.860000014       28.0595474      -70.6964951      -42.6369476       1.56816705E+14
  0.870000005       27.9781151      -70.6140213      -42.6359100       1.56361623E+14
  0.879999936       27.8881664      -70.5100937      -42.6219254       1.55858911E+14
  0.890000045       27.8007870      -70.4173279      -42.6165428       1.55370593E+14
  0.899999976       27.7305775      -70.3368149      -42.6062355       1.54978207E+14
  0.909999967       27.6933651      -70.2817612      -42.5883942       1.54770237E+14
  0.920000076       27.7014351      -70.2902374      -42.5888023       1.54815317E+14
  0.930000007       27.7615414      -70.3595276      -42.5979881       1.55151248E+14
  0.939999998       27.8732033      -70.4672775      -42.5940742       1.55775293E+14
  0.949999988       28.0247078      -70.6172638      -42.5925560       1.56622005E+14
  0.959999979       28.1906452      -70.7779770      -42.5873375       1.57549400E+14
  0.969999969       28.3365383      -70.9169617      -42.5804214       1.58364722E+14
  0.979999959       28.4293308      -71.0120544      -42.5827293       1.58883323E+14
  0.989999950       28.4483223      -71.0285263      -42.5802040       1.58989472E+14
  0.999999940       28.3893089      -70.9739532      -42.5846481       1.58659649E+14
   1.00999999       28.2627735      -70.8418961      -42.5791206       1.57952506E+14
   1.02000010       28.0884991      -70.6679382      -42.5794411       1.56978521E+14
   1.02999997       27.8891163      -70.4633560      -42.5742416       1.55864229E+14
   1.03999996       27.6846771      -70.2564621      -42.5717812       1.54721684E+14
   1.04999995       27.4893932      -70.0546799      -42.5652847       1.53630276E+14
   1.05999994       27.3127613      -69.8764725      -42.5637093       1.52643138E+14
   1.06999993       27.1650753      -69.7266998      -42.5616264       1.51817783E+14
   1.07999992       27.0610733      -69.6132507      -42.5521774       1.51236536E+14
   1.09000003       27.0189667      -69.5829391      -42.5639687       1.51001202E+14
   1.10000002       27.0527916      -69.6139145      -42.5611229       1.51190248E+14
   1.11000001       27.1625481      -69.7232285      -42.5606766       1.51803656E+14
   1.12000000       27.3285885      -69.8922272      -42.5636330       1.52731604E+14
   1.13000000       27.5137024      -70.0791473      -42.5654411       1.53766137E+14
   1.13999999       27.6769562      -70.2456665      -42.5687141       1.54678533E+14
   1.14999998       27.7892036      -70.3570786      -42.5678787       1.55305850E+14
   1.15999997       27.8421249      -70.4049835      -42.5628548       1.55601615E+14
   1.16999996       27.8458080      -70.4117584      -42.5659523       1.55622184E+14
   1.17999995       27.8190460      -70.3817749      -42.5627327       1.55472632E+14
   1.18999994       27.7799168      -70.3366623      -42.5567436       1.55253958E+14
   1.20000005       27.7395515      -70.2973251      -42.5577698       1.55028354E+14
   1.21000016       27.7013264      -70.2559280      -42.5545998       1.54814713E+14
   1.22000003       27.6637497      -70.2178726      -42.5541229       1.54604713E+14
   1.23000002       27.6250668      -70.1784744      -42.5534058       1.54388539E+14
   1.24000001       27.5871086      -70.1344833      -42.5473747       1.54176391E+14
   1.25000000       27.5548611      -70.0967712      -42.5419083       1.53996170E+14
   1.25999999       27.5322361      -70.0717697      -42.5395317       1.53869737E+14
   1.26999998       27.5183754      -70.0564346      -42.5380554       1.53792243E+14
   1.27999997       27.5076218      -70.0431366      -42.5355148       1.53732164E+14
   1.28999996       27.4916096      -70.0248108      -42.5332031       1.53642674E+14
   1.29999995       27.4638557      -69.9898987      -42.5260391       1.53487569E+14
   1.30999994       27.4259548      -69.9533539      -42.5273972       1.53275756E+14
   1.31999993       27.3902416      -69.9038925      -42.5136528       1.53076158E+14
   1.32999992       27.3756428      -69.8837967      -42.5081558       1.52994570E+14
   1.33999991       27.3963146      -69.8988876      -42.5025711       1.53110098E+14
   1.34999990       27.4520664      -69.9468536      -42.4947853       1.53421668E+14
   1.35999978       27.5271893      -70.0181427      -42.4909554       1.53841517E+14
   1.37000000       27.5970936      -70.1037979      -42.5067062       1.54232192E+14
   1.38000011       27.6374168      -70.1461487      -42.5087280       1.54457543E+14
   1.39000010       27.6325150      -70.1357269      -42.5032158       1.54430146E+14
   1.39999998       27.5775299      -70.0778198      -42.5002861       1.54122871E+14
   1.41000009       27.4770184      -69.9817276      -42.5047073       1.53561120E+14
   1.42000008       27.3399773      -69.8348236      -42.4948463       1.52795240E+14
   1.42999995       27.1751499      -69.6610413      -42.4858894       1.51874070E+14
   1.43999994       26.9913502      -69.4900818      -42.4987297       1.50846885E+14
   1.45000005       26.8029861      -69.2973099      -42.4943237       1.49794165E+14
   1.45999992       26.6344090      -69.1164551      -42.4820442       1.48852041E+14
   1.46999991       26.5138988      -68.9923325      -42.4784355       1.48178519E+14
   1.48000002       26.4562035      -68.9316711      -42.4754677       1.47856095E+14
   1.48999989       26.4510918      -68.9279099      -42.4768219       1.47827506E+14
   1.49999988       26.4723721      -68.9452133      -42.4728394       1.47946457E+14
   1.50999999       26.4941673      -68.9630356      -42.4688683       1.48068259E+14
   1.51999998       26.5005112      -68.9635239      -42.4630127       1.48103710E+14
   1.52999997       26.4849834      -68.9434204      -42.4584351       1.48016938E+14
   1.53999996       26.4451485      -68.9119110      -42.4667625       1.47794304E+14
   1.54999995       26.3772316      -68.8379135      -42.4606819       1.47414736E+14
   1.55999994       26.2787609      -68.7441635      -42.4654007       1.46864410E+14
   1.56999993       26.1565876      -68.6150970      -42.4585114       1.46181628E+14
   1.58000004       26.0285492      -68.4865646      -42.4580154       1.45466046E+14
   1.59000003       25.9137745      -68.3766479      -42.4628754       1.44824619E+14
   1.60000002       25.8253670      -68.2913132      -42.4659424       1.44330514E+14
   1.61000001       25.7689991      -68.2404861      -42.4714928       1.44015505E+14
   1.62000000       25.7413445      -68.2216415      -42.4802971       1.43860953E+14
   1.63000000       25.7339401      -68.2194519      -42.4855118       1.43819564E+14
   1.63999999       25.7422199      -68.2249908      -42.4827690       1.43865852E+14
   1.64999998       25.7686272      -68.2544250      -42.4857941       1.44013424E+14
   1.65999997       25.8172626      -68.3093338      -42.4920731       1.44285232E+14
   1.66999984       25.8914280      -68.3931198      -42.5016899       1.44699730E+14
   1.67999995       25.9919147      -68.4849930      -42.4930801       1.45261314E+14
   1.69000006       26.1133461      -68.6007462      -42.4873962       1.45939952E+14
   1.69999993       26.2424774      -68.7261505      -42.4836731       1.46661641E+14
   1.71000004       26.3628101      -68.8484116      -42.4856033       1.47334139E+14
   1.72000003       26.4604454      -68.9484406      -42.4879990       1.47879784E+14
   1.72999990       26.5292034      -69.0247955      -42.4955902       1.48264066E+14
   1.74000001       26.5710373      -69.0675583      -42.4965210       1.48497857E+14
   1.75000000       26.5901527      -69.0889435      -42.4987907       1.48604711E+14
   1.75999987       26.5847569      -69.0736160      -42.4888611       1.48574545E+14
   1.76999986       26.5472641      -69.0491104      -42.5018501       1.48364998E+14
   1.78000009       26.4719696      -68.9802856      -42.5083160       1.47944209E+14
   1.78999996       26.3626423      -68.8771896      -42.5145454       1.47333199E+14
   1.79999995       26.2334328      -68.7543411      -42.5209084       1.46611091E+14
   1.81000006       26.1030254      -68.6324081      -42.5293808       1.45882272E+14
   1.81999993       25.9866848      -68.5195465      -42.5328598       1.45232088E+14
   1.82999992       25.8897495      -68.4179993      -42.5282516       1.44690351E+14
   1.84000015       25.8108559      -68.3361588      -42.5252991       1.44249429E+14
   1.85000002       25.7550259      -68.2847672      -42.5297394       1.43937407E+14
   1.86000001       25.7399712      -68.2693863      -42.5294113       1.43853269E+14
   1.87000000       25.7824707      -68.3192139      -42.5367393       1.44090784E+14
   1.88000000       25.8787327      -68.4194870      -42.5407524       1.44628762E+14
   1.88999999       26.0043583      -68.5401764      -42.5358200       1.45330855E+14
   1.89999998       26.1316738      -68.6733704      -42.5416985       1.46042394E+14
   1.90999997       26.2428913      -68.7861176      -42.5432243       1.46663956E+14
   1.91999996       26.3305130      -68.8659973      -42.5354805       1.47153633E+14
   1.92999995       26.3919659      -68.9282379      -42.5362740       1.47497079E+14
   1.93999994       26.4245949      -68.9641724      -42.5395775       1.47679447E+14
   1.94999993       26.4245453      -68.9761963      -42.5516548       1.47679145E+14
   1.95999992       26.3895054      -68.9456024      -42.5560989       1.47483338E+14
   1.96999991       26.3227024      -68.8812332      -42.5585327       1.47109978E+14
   1.97999990       26.2338085      -68.7800446      -42.5462379       1.46613188E+14
   1.98999977       26.1357117      -68.6854401      -42.5497284       1.46064959E+14
   1.99999988       26.0390186      -68.5874252      -42.5484085       1.45524565E+14
   2.01000023       25.9507446      -68.4997482      -42.5490036       1.45031231E+14
   2.01999998       25.8759785      -68.4125595      -42.5365829       1.44613378E+14
   2.02999997       25.8191414      -68.3442230      -42.5250854       1.44295735E+14
   2.04000020       25.7855854      -68.3130417      -42.5274582       1.44108199E+14
   2.04999995       25.7817936      -68.3205414      -42.5387497       1.44087009E+14
   2.05999994       25.8084412      -68.3412552      -42.5328178       1.44235924E+14
   2.07000017       25.8500347      -68.3823547      -42.5323181       1.44468406E+14
   2.07999992       25.8784351      -68.3974762      -42.5190392       1.44627101E+14
   2.08999991       25.8700123      -68.3771057      -42.5070877       1.44580024E+14
   2.09999990       25.8192844      -68.3225021      -42.5032158       1.44296540E+14
   2.10999990       25.7382088      -68.2381821      -42.4999695       1.43843421E+14
   2.11999989       25.6487007      -68.1399231      -42.4912262       1.43343191E+14
   2.12999988       25.5730629      -68.0632477      -42.4901848       1.42920473E+14
   2.13999987       25.5281906      -68.0212936      -42.4931068       1.42669687E+14
   2.14999986       25.5253849      -68.0207443      -42.4953537       1.42654017E+14
   2.15999985       25.5687122      -68.0653915      -42.4966812       1.42896162E+14
   2.17000008       25.6548748      -68.1442947      -42.4894218       1.43377702E+14
   2.18000007       25.7740574      -68.2679901      -42.4939308       1.44043774E+14
   2.18999982       25.9128494      -68.3986816      -42.4858322       1.44819435E+14
   2.20000005       26.0525150      -68.5309143      -42.4784012       1.45599995E+14
   2.21000004       26.1671524      -68.6528320      -42.4856796       1.46240667E+14
   2.22000003       26.2270527      -68.7059174      -42.4788589       1.46575439E+14
   2.23000002       26.2078705      -68.6838455      -42.4759750       1.46468233E+14
   2.24000001       26.1002102      -68.5812759      -42.4810600       1.45866552E+14
   2.25000000       25.9127769      -68.3944550      -42.4816780       1.44819033E+14
   2.25999999       25.6689281      -68.1628113      -42.4938812       1.43456236E+14
   2.26999998       25.4003487      -67.8998184      -42.4994698       1.41955212E+14
   2.27999997       25.1407757      -67.6466064      -42.5058250       1.40504545E+14
   2.28999972       24.9224625      -67.4406357      -42.5181732       1.39284456E+14
   2.29999995       24.7745247      -67.2933426      -42.5188217       1.38457674E+14
