 Time (ps)Ekin (1e12erg)Epot (1e12erg)E (1e12erg)T (K)
   0.00000000       16.8911705      -68.7072372      -51.8160667       94.3998795    
  0.100000009       19.9275627      -71.7609024      -51.8333397       111.369400    
  0.200000018       20.7887039      -72.6311798      -51.8424759       116.182068    
  0.300000012       20.7127590      -72.5785370      -51.8657837       115.757637    
  0.400000036       19.7960682      -71.6537628      -51.8576927       110.634514    
  0.500000060       19.9698906      -71.8326569      -51.8627663       111.605957    
  0.600000024       20.1122246      -72.0160904      -51.9038620       112.401421    
  0.700000048       20.7408257      -72.6456604      -51.9048347       115.914490    
  0.800000072       20.0413265      -71.9456100      -51.9042816       112.005188    
  0.900000036       20.3137188      -72.1865997      -51.8728790       113.527519    
   1.00000012       20.7264366      -72.6084366      -51.8820000       115.834076    
   1.10000014       20.8124886      -72.6945038      -51.8820114       116.314995    
   1.20000005       20.7071552      -72.6084824      -51.9013252       115.726318    
   1.30000007       20.8417778      -72.7366180      -51.8948364       116.478683    
   1.40000010       19.9912758      -71.8804932      -51.8892174       111.725471    
   1.50000000       19.9080429      -71.7835922      -51.8755531       111.260307    
   1.60000014       20.4838715      -72.3574219      -51.8735466       114.478447    
   1.70000005       20.1150322      -71.9565887      -51.8415527       112.417114    
   1.80000007       20.0260906      -71.8945770      -51.8684883       111.920044    
   1.90000010       20.4514942      -72.3067932      -51.8552971       114.297508    
   2.00000024       20.1911621      -72.0444260      -51.8532639       112.842575    
   2.10000014       20.4003658      -72.2657928      -51.8654251       114.011757    
   2.20000029       20.1005592      -71.9660187      -51.8654556       112.336220    
   2.30000019       20.4016037      -72.2873001      -51.8856964       114.018677    
   2.40000010       20.0724754      -71.9667358      -51.8942642       112.179276    
   2.50000048       20.9606094      -72.8210297      -51.8604202       117.142807    
   2.60000014       20.1909580      -72.0680313      -51.8770714       112.841438    
   2.70000005       20.3404274      -72.2094421      -51.8690109       113.676781    
   2.80000019       20.5001144      -72.3630447      -51.8629303       114.569221    
   2.90000033       20.6595936      -72.5255585      -51.8659706       115.460510    
   3.00000000       20.6344433      -72.4983368      -51.8638878       115.319954    
   3.10000014       20.7555141      -72.5996017      -51.8440857       115.996582    
   3.20000029       20.3672447      -72.2204208      -51.8531799       113.826653    
   3.30000019       19.9712601      -71.8325424      -51.8612785       111.613617    
   3.40000010       20.1598377      -72.0257111      -51.8658714       112.667519    
   3.50000024       20.3234234      -72.1852341      -51.8618126       113.581749    
   3.60000014       20.2670403      -72.1364288      -51.8693924       113.266640    
   3.70000052       20.7291164      -72.6203079      -51.8911896       115.849052    
   3.80000019       19.5807934      -71.4764557      -51.8956604       109.431404    
   3.90000010       19.8527336      -71.7312241      -51.8784904       110.951202    
   4.00000048       20.1352940      -72.0076904      -51.8723946       112.530350    
   4.10000038       20.4180069      -72.2691422      -51.8511353       114.110352    
   4.20000029       20.5184555      -72.3918533      -51.8734016       114.671730    
   4.30000019       20.1733875      -72.0411911      -51.8678055       112.743240    
   4.40000057       20.0938759      -71.9556503      -51.8617706       112.298882    
   4.50000048       20.8667374      -72.7204132      -51.8536720       116.618172    
   4.60000038       20.4929199      -72.3481598      -51.8552437       114.529015    
   4.70000029       20.0047283      -71.8604126      -51.8556862       111.800659    
   4.80000019       20.4162197      -72.2531357      -51.8369179       114.100357    
   4.90000010       20.3529301      -72.1771240      -51.8241959       113.746651    
   5.00000095       20.2259827      -72.0628815      -51.8369026       113.037178    
   5.10000038       20.0919247      -71.9546890      -51.8627663       112.287971    
   5.20000029       20.3357983      -72.2239075      -51.8881073       113.650917    
   5.30000019       20.7690411      -72.6530151      -51.8839760       116.072182    
   5.40000010       20.0825386      -71.9548492      -51.8723106       112.235512    
   5.50000000       19.7529106      -71.6008835      -51.8479729       110.393326    
   5.60000038       19.9120216      -71.7595139      -51.8474922       111.282547    
   5.70000029       19.9254684      -71.7567368      -51.8312683       111.357704    
   5.80000067       20.2275562      -72.0780869      -51.8505287       113.045975    
   5.90000010       20.0179100      -71.8857422      -51.8678284       111.874329    
   6.00000000       19.4701576      -71.3273087      -51.8571548       108.813095    
   6.10000038       20.1308231      -71.9997101      -51.8688889       112.505371    
   6.20000029       20.6757431      -72.5450974      -51.8693504       115.550774    
   6.30000019       20.5539532      -72.4197693      -51.8658180       114.870110    
   6.40000057       20.5271339      -72.3980484      -51.8709106       114.720230    
   6.50000000       20.0451279      -71.9276962      -51.8825722       112.026443    
   6.60000038       20.0555134      -71.9183426      -51.8628273       112.084473    
   6.70000076       19.2007294      -71.0665588      -51.8658257       107.307343    
   6.80000019       20.4623756      -72.3297653      -51.8673935       114.358322    
   6.90000057       20.2469406      -72.1234283      -51.8764839       113.154312    
   7.00000048       20.6940002      -72.5593185      -51.8653183       115.652802    
   7.10000038       20.8131332      -72.6800003      -51.8668671       116.318596    
   7.20000029       20.6874943      -72.5539322      -51.8664398       115.616440    
   7.30000019       20.0378971      -71.9012375      -51.8633385       111.986023    
   7.40000105       20.3171902      -72.1856308      -51.8684387       113.546921    
   7.50000095       20.4697552      -72.3320923      -51.8623390       114.399551    
   7.60000038       20.2372589      -72.1011200      -51.8638573       113.100204    
   7.70000029       20.1532116      -72.0291748      -51.8759613       112.630493    
   7.80000019       20.4167213      -72.2845612      -51.8678360       114.103172    
   7.90000105       20.3260746      -72.2031174      -51.8770447       113.596565    
   8.00000095       20.4778633      -72.3219299      -51.8440704       114.444870    
   8.10000038       20.0618420      -71.8907089      -51.8288689       112.119850    
   8.20000076       20.2926884      -72.1484299      -51.8557434       113.409981    
   8.30000019       19.9622288      -71.8226166      -51.8603859       111.563141    
   8.40000057       20.0407238      -71.9036255      -51.8629036       112.001831    
   8.50000095       20.8471069      -72.7247238      -51.8776131       116.508469    
   8.60000038       20.6857262      -72.5420151      -51.8562889       115.606552    
   8.70000076       20.3182793      -72.1664963      -51.8482132       113.553009    
   8.80000114       20.4147568      -72.2918930      -51.8771362       114.092186    
   8.90000057       20.1190376      -71.9793854      -51.8603477       112.439499    
   9.00000095       20.0624332      -71.9253159      -51.8628807       112.123146    
   9.10000038       21.0013504      -72.8516006      -51.8502502       117.370491    
   9.20000076       20.1165485      -71.9774246      -51.8608780       112.425591    
   9.30000114       20.9825497      -72.8100662      -51.8275146       117.265411    
   9.40000057       20.1085701      -71.9679718      -51.8594055       112.380997    
   9.50000000       20.7303009      -72.6089935      -51.8786964       115.855675    
   9.60000038       20.1770439      -72.0607910      -51.8837433       112.763680    
   9.70000076       20.2867908      -72.1725616      -51.8857651       113.377022    
   9.80000019       19.9722290      -71.8534088      -51.8811836       111.619026    
   9.90000057       20.0605183      -71.9467545      -51.8862381       112.112450    
   10.0000019       19.9494286      -71.8376923      -51.8882637       111.491608    
   10.1000013       20.0293503      -71.9439926      -51.9146423       111.938255    
   10.2000008       19.8941669      -71.7535782      -51.8594170       111.182755    
   10.3000002       20.6496334      -72.5247498      -51.8751144       115.404846    
   10.4000006       20.2312737      -72.1205902      -51.8893204       113.066750    
   10.5000010       20.0021763      -71.8859711      -51.8837929       111.786400    
   10.6000004       19.8433170      -71.7114105      -51.8680992       110.898567    
   10.7000008       20.5190296      -72.4059143      -51.8868828       114.674934    
   10.8000002       19.9664421      -71.8386612      -51.8722191       111.586685    
   10.9000006       20.4539051      -72.3205414      -51.8666306       114.310982    
   11.0000000       20.0436516      -71.9082184      -51.8645630       112.018181    
   11.0999994       19.9425430      -71.8172913      -51.8747482       111.453117    
   11.2000008       20.2732506      -72.1560745      -51.8828239       113.301346    
   11.3000011       19.5354328      -71.4294281      -51.8939934       109.177895    
   11.4000006       20.0495949      -71.9116745      -51.8620834       112.051407    
   11.5000010       19.6442776      -71.4860840      -51.8418007       109.786201    
   11.6000013       20.4970646      -72.3317337      -51.8346672       114.552177    
   11.7000017       20.6048393      -72.4775543      -51.8727150       115.154503    
   11.8000002       19.7668133      -71.6416016      -51.8747902       110.471016    
   11.8999996       20.2225037      -72.0993347      -51.8768272       113.017746    
   12.0000000       20.3547821      -72.2433090      -51.8885269       113.757004    
   12.1000004       20.1021118      -72.0033493      -51.9012337       112.344910    
   12.2000008       20.1618481      -72.0402756      -51.8784294       112.678749    
   12.3000021       20.5404816      -72.4128342      -51.8723488       114.794830    
   12.4000006       20.1416130      -71.9820328      -51.8404198       112.565659    
   12.5000010       19.7316437      -71.5740433      -51.8424034       110.274460    
   12.6000004       20.0881596      -71.9305267      -51.8423653       112.266937    
   12.7000008       20.1544476      -71.9811401      -51.8266945       112.637398    
   12.8000011       20.2252140      -72.0863953      -51.8611794       113.032890    
   12.9000006       19.8900261      -71.7369919      -51.8469658       111.159615    
   13.0000000       19.6226292      -71.4898605      -51.8672333       109.665222    
   13.1000004       20.0765629      -71.9357452      -51.8591843       112.202126    
   13.2000008       20.1899071      -72.0637054      -51.8737984       112.835564    
   13.3000011       20.6993122      -72.5634918      -51.8641777       115.682487    
   13.4000015       20.0964241      -71.9570847      -51.8606606       112.313118    
   13.5000010       20.7651215      -72.6364517      -51.8713303       116.050278    
   13.6000004       20.1519165      -72.0126190      -51.8607025       112.623253    
   13.7000008       20.0323887      -71.8875198      -51.8551292       111.955246    
   13.8000011       20.4344521      -72.2992554      -51.8648033       114.202263    
   13.9000015       20.4235420      -72.2720566      -51.8485146       114.141281    
   14.0000010       20.4795742      -72.3352203      -51.8556442       114.454437    
   14.1000013       19.7881985      -71.6498871      -51.8616867       110.590538    
   14.2000008       20.4616375      -72.3335190      -51.8718834       114.354187    
   14.3000002       19.6623802      -71.5559464      -51.8935661       109.887375    
   14.4000006       20.2202320      -72.0905380      -51.8703041       113.005043    
   14.5000000       20.6740818      -72.5646973      -51.8906174       115.541481    
   14.6000004       20.4897842      -72.3676605      -51.8778763       114.511490    
   14.7000017       20.1861668      -72.0549622      -51.8688011       112.814667    
   14.8000021       19.8833523      -71.7288208      -51.8454704       111.122322    
   14.9000015       20.2581959      -72.1112823      -51.8530846       113.217216    
   15.0000019       19.9543934      -71.7836609      -51.8292694       111.519356    
   15.1000004       19.6670856      -71.5449753      -51.8778915       109.913666    
   15.2000008       20.6010952      -72.4703522      -51.8692589       115.133583    
   15.3000011       20.6683064      -72.5563278      -51.8880196       115.509209    
   15.4000006       20.0742569      -71.9607391      -51.8864861       112.189232    
   15.5000010       19.5980778      -71.4850845      -51.8870010       109.528008    
   15.6000004       19.9733562      -71.8497009      -51.8763428       111.625328    
   15.7000008       20.2212753      -72.1163712      -51.8950920       113.010880    
   15.8000021       20.3900318      -72.3013763      -51.9113503       113.954002    
   15.9000015       20.4821911      -72.3874893      -51.9053001       114.469055    
   16.0000019       20.2794476      -72.1659851      -51.8865395       113.335983    
   16.1000004       20.2555237      -72.1430588      -51.8875389       113.202278    
   16.2000008       19.9622822      -71.8315506      -51.8692665       111.563438    
   16.3000011       20.3784924      -72.2528458      -51.8743591       113.889519    
   16.4000015       20.2586975      -72.1334763      -51.8747826       113.220016    
   16.5000019       19.8517818      -71.7423172      -51.8905411       110.945885    
   16.6000004       19.9217014      -71.8015823      -51.8798828       111.336639    
   16.7000008       19.8833561      -71.7561340      -51.8727798       111.122337    
   16.8000011       19.3007755      -71.1882248      -51.8874474       107.866470    
   16.8999996       20.3180161      -72.1811829      -51.8631668       113.551537    
   17.0000019       19.6653595      -71.5518188      -51.8864594       109.904022    
   17.1000023       20.2343712      -72.1340637      -51.8996925       113.084068    
   17.2000008       20.1585007      -72.0389862      -51.8804855       112.660042    
   17.3000011       20.2572289      -72.1341858      -51.8769608       113.211807    
   17.4000015       20.0876999      -71.9768372      -51.8891335       112.264366    
   17.5000000       20.4525509      -72.3254471      -51.8728943       114.303406    
   17.6000023       20.5600834      -72.4263611      -51.8662834       114.904373    
   17.7000008       20.5272045      -72.4132843      -51.8860779       114.720627    
   17.8000011       20.2992020      -72.2000046      -51.9008026       113.446381    
   17.9000015       20.4254131      -72.3377914      -51.9123840       114.151741    
   18.0000019       20.0258865      -71.9443665      -51.9184799       111.918907    
   18.1000023       20.0413513      -71.9384842      -51.8971329       112.005325    
   18.2000008       21.0245075      -72.8957977      -51.8712921       117.499901    
   18.3000011       20.3929348      -72.2728577      -51.8799171       113.970238    
   18.4000015       20.7466984      -72.6560135      -51.9093170       115.947311    
   18.5000019       20.1168880      -71.9967270      -51.8798409       112.427483    
   18.6000023       19.7642250      -71.6557007      -51.8914757       110.456551    
   18.7000027       20.2568321      -72.1448135      -51.8879814       113.209595    
   18.8000011       20.1939831      -72.0819244      -51.8879395       112.858353    
   18.9000015       20.4678631      -72.3385391      -51.8706741       114.388985    
   19.0000000       20.2164745      -72.0921860      -51.8757133       112.984047    
   19.1000004       20.3967934      -72.3004303      -51.9036331       113.991798    
   19.2000008       20.5938816      -72.4984512      -51.9045715       115.093262    
   19.3000011       20.3672867      -72.2607346      -51.8934441       113.826897    
   19.4000015       19.3776417      -71.2720413      -51.8944016       108.296051    
   19.5000019       19.8521137      -71.7434769      -51.8913651       110.947731    
   19.6000004       20.8746262      -72.7625275      -51.8878975       116.662270    
   19.7000008       20.1036701      -71.9737930      -51.8701248       112.353615    
   19.8000011       20.4709454      -72.3699341      -51.8989906       114.406212    
   19.9000034       20.3676872      -72.2717667      -51.9040794       113.829124    
   20.0000038       20.1429577      -72.0004349      -51.8574753       112.573181    
   20.1000004       20.1194630      -72.0083847      -51.8889236       112.441879    
   20.2000027       20.4251728      -72.3167343      -51.8915634       114.150398    
   20.3000011       20.6361275      -72.5196075      -51.8834801       115.329369    
   20.4000015       20.1638947      -72.0468216      -51.8829231       112.690193    
   20.5000019       20.3049259      -72.1624908      -51.8575668       113.478378    
   20.6000004       20.4147148      -72.2930450      -51.8783302       114.091957    
   20.7000027       20.8288498      -72.7067032      -51.8778534       116.406433    
   20.8000011       20.6432610      -72.5064697      -51.8632126       115.369232    
   20.9000034       20.6760292      -72.5392075      -51.8631821       115.552361    
   21.0000019       20.6785812      -72.5883865      -51.9098053       115.566620    
   21.1000004       20.4340076      -72.3342133      -51.9002075       114.199783    
   21.2000008       20.0675774      -71.9404297      -51.8728523       112.151901    
   21.2999992       20.1980610      -72.0577393      -51.8596802       112.881142    
   21.4000015       20.7142715      -72.5572357      -51.8429680       115.766090    
   21.5000000       20.5267715      -72.3783340      -51.8515625       114.718201    
   21.6000004       20.2107468      -72.0714111      -51.8606644       112.952034    
   21.7000008       20.2030087      -72.0616531      -51.8586464       112.908791    
   21.8000011       19.9506855      -71.8230209      -51.8723335       111.498627    
   21.9000015       19.9155788      -71.8036194      -51.8880386       111.302429    
   22.0000000       20.6145954      -72.4930115      -51.8784180       115.209023    
   22.1000004       20.5852718      -72.4601135      -51.8748436       115.045143    
   22.1999989       19.8956032      -71.7810364      -51.8854370       111.190781    
   22.3000031       20.1833801      -72.0678482      -51.8844604       112.799095    
   22.4000015       20.1154385      -72.0095139      -51.8940773       112.419388    
   22.5000019       20.0650883      -71.9287949      -51.8637085       112.137993    
   22.6000023       20.0272484      -71.8903961      -51.8631439       111.926521    
   22.7000027       20.7844181      -72.6470413      -51.8626251       116.158112    
   22.8000011       20.7933102      -72.6392288      -51.8459167       116.207809    
   22.9000015       20.3770504      -72.2198563      -51.8428040       113.881462    
   23.0000019       20.1873646      -72.0413666      -51.8540001       112.821358    
